m/z	Intensity
1999.937342157922	54941.67697578575
2004.773043322377	60739.29661675827
2014.1925109899728	71833.8842644618
2022.1489222741047	21716.74479218381
2031.2031867002495	55351.826247828605
2037.9055223583975	247097.99923977972
2070.3533310428306	3532180.063326544
2080.199258402813	105735.94023831424
2086.433381261876	128950.39106005663
2093.1574833910395	238174.88212158778
2110.2908529469178	277204.26129820384
2133.45195381913	1783525.7056296368
2169.2344548112414	797749.3468863381
2185.552950388911	105108.41191272522
2193.067340550795	60787.97130133405
2208.981240580585	23210.45437835408
2211.592093971343	33722.28091633641
2225.873131776264	16954.408150330244
2229.982120646334	11355.95912688104
2246.669388305236	169966.7682088582
2326.33091007152	63165.18155214583
2330.8938586743084	19804.983373699342
2411.2848755329696	37073.428105560466
2424.569527588166	133609.6498835361
2479.044484272707	133749.97562396078
2499.412882238062	10124.898274295667
2513.61499343027	49538.878101890376
2537.601409546069	40057.100251301905
2553.124732894751	6695.2967833516295
2588.511634709881	1141115.5503376676
2597.606776814694	35533.58948335185
2602.351742370578	11461.932023063286
2610.7041951954284	21498.21602832721
2635.9189067132165	63481.89484036558
2653.362971262848	65736.87911517815
2773.998422049274	503132.34291529516
2806.7427138674834	368963.28248046216
2816.770746124187	6628.731716957688
2828.97168321838	4516923.49489963
2880.3746640180398	11335615.946049377
2891.1788599689608	151419.1321343828
2899.6589675970563	106532.90363684397
2953.491556084935	9072.523224420785
2967.619822949438	73922.78627550017
2975.0649846679194	84395.33856034423
2990.721977182519	158313.90087654913
3045.8864621398407	2019511.4797842943
3055.419923380143	25338.61315291751
3066.3810410542205	127671.91053477256
3078.3610072932242	40552.528959997086
3107.325352348205	454477.97147395293
3131.383929762646	74188.6204030024
3163.8877626763165	1094902.1610203288
3177.240847484761	84088.01043055151
3189.77430597633	786723.8919758218
3321.6540397409376	750491.2262743086
3331.2628672093074	286515.3668316478
3351.130334013143	516661.8074065
3479.9818904099857	15550.533939294335
3488.664328198961	1629909.5399250183
3498.6003604122197	52572.67512907797
3507.3948675947013	18253.580883391474
3519.405168480392	10704.028222448698
3588.750380029288	49392.00136691334
3617.4000355005546	31105.331889367913
3627.517603302206	66615.55914580917
3636.0200389831425	2587112.8868125584
3680.775581964354	23092.187630371263
3717.9301655445674	4002998.543032761
3728.095615945451	26645.06254425623
3742.0383863315806	3709325.1693674517
3761.712450468683	470894.272288774
3834.9735954752673	1168941.463912025
3856.1016962302124	140091.37990445332
3862.7219608444593	5311.322385581154
3874.9517183397425	707486.884987091
3896.095823031761	11031.394153079378
3964.502672111566	110698.78534011867
3982.005213152046	3004.2717034596058
4027.692234702671	17451.47873978574
4106.083275448447	295119.0017057084
4140.103866538151	332905.9497109455
4161.087035030284	8975166.557207005
4243.789952530467	96328585.58510005
4265.327987855157	15694169.509619808
4280.535248013267	241967.27870150685
4379.396410959455	169844.46970645626
4436.195296732183	311562.73643342353
4452.204623909375	1619173.0646108757
4463.227763010822	767619.7554629056
4472.959475731906	76593.17818327225
4486.923394535242	3441262.08023879
4600.334363328573	1026175.9874564166
4661.617588896979	10393924.77908881
4697.141922569965	1233084.930061462
4709.390993215131	104716.23665947202
4784.8813976374095	7412129.693903232
4997.431663633877	2694383.731168211
5027.078392849832	4308072.686013959
5054.251555023585	128459.82178382626
5175.763334387973	6157956.957984422
5194.67709765971	101648.01927954104
5213.083498638783	10018.427147164652
5318.512109551392	37276.17937464189
5343.498042778169	8972.242413718765
5374.042569778175	26089.928937306708
5383.288976721585	833369.5816617884
5439.266398998017	658584.2979643558
5500.76408797077	23549.589402010803
5520.5966543077675	939916.7124192119
5642.257940565553	2677932.531944787
5760.231924548115	109362457.54263029
5782.80894256167	3384757.413282079
5797.199127407293	2553296.6259105196
5904.196146498053	119305.10055591215
5931.445053769342	14964.91406319115
5948.796883045708	39353.040788468716
6043.401407521085	1770381.639141392
6090.866405989679	9820005.498790087
6113.964353644461	245653.06767094118
6159.937984857458	3819936.4211150403
6210.104636538512	815931.6286460917
6232.005440620533	64949.6704616754
6306.160566908996	1014693.8504007513
6328.110552300499	9875315.111872466
6352.490983082014	817192.3675511567
6373.80239855158	240393.60359692536
6569.0357035836805	1110134.0969126418
6642.716947227864	4879202.032113603
6709.799409601211	292962.1293255539
6731.455193597752	420933.2117238561
6810.74534876029	8854.898031625846
6839.636813698647	378077.9341225482
6977.612317314373	3297756.9770137668
6998.440036193359	411397.43864128314
7065.524404397902	211423.36435784554
7271.128955641857	3576766.4956768537
7292.774422610028	22107.36642869541
7435.224734325749	7186693.827703264
7676.843430161238	121500.379914684
7713.445813082199	81986.77522227626
7734.155405891768	41139.66442677045
7750.003114377157	797972.7502279255
7928.605586042026	51331.25184165372
7977.193174072637	179325.84071204043
8008.861413227799	7946.905851467947
8321.32517039313	8224365.213955554
8487.679251427024	218035288.22662917
8904.605365263073	1219255.1245638384
8926.288366105488	267383.04054622387
8947.997734257717	5898.031731031696
8972.718863846578	1119343.3636387938
9072.230320534598	271128.0552459354
9201.20622505629	315304.14784279384
9322.685238196127	7118040.025160136
9393.54010026225	262513.1241898137
9569.060981565317	2826156.602574076
9995.529212829317	527904.6147456017
10052.783092736387	1119022.2369441516
10320.909891095802	911.2319988768122
10762.546172177172	101224.40098369504
10876.357406309255	23584.49930776637
11036.604177435334	32976.977262043685
11282.041037097657	139746.06564070267
11520.831277623784	1245.3120592828795
11571.47253713886	69980.81308412256
11693.854200515068	1862.494153237246
12082.178376565244	75096.44614119946
12317.584401229009	469856.6378799694
12409.707403159326	16581.5026097936
12607.619499773456	122878.14673642274
13107.101694133382	275.04016505500226
13140.630794330085	4859.754078801292
13299.570178051767	5342.82146161525
13404.322792947873	366.3322743149822
13428.140079029166	2835.916375913607
13454.067550422415	2187.0719412805092
13657.65118791335	2970.0099561789393
