m/z	Intensity
2007.1114918761439	25739.931566110226
2013.3036630919264	6352.725104125011
2016.605559792269	4891.58646875116
2024.5006226577018	7600.296819858702
2027.6088887709727	5298.825845433913
2047.2593762678705	3719.3923813411357
2052.492840355564	4132.568932435327
2070.077037254628	234745.62300454912
2076.228704823191	7750.150739261069
2080.6087767610893	12122.543037939424
2085.062011353433	14841.312838854014
2092.8151204530627	50430.74788596243
2110.0191443906792	19246.490148226618
2129.024910243988	6410.639775055409
2133.598973718257	6077.8576803769265
2177.0872382165435	21702.994319284007
2182.2034734995373	2123.3079527941613
2185.3603087713723	1571.9160899844821
2192.524249533274	5669.699911339897
2197.799332045261	2700.0555603701278
2214.157047549767	5153.992651274915
2227.31522540569	9045.70210392531
2238.9493982662984	2621.724860047376
2244.6356019248256	1306.5395473240753
2256.6001027148623	4821.212167256524
2272.172875029838	5189.48274371526
2275.8237756907447	1450.5315809239619
2297.718766323112	5397.603286319516
2309.3187188480833	3088.895024959036
2323.8416405845364	1781.0301131121237
2338.7004666908547	2416.534570431897
2342.3317538497326	5119.95040620201
2357.2494824462174	11738.683422146414
2366.295873095959	3014.4790502033816
2372.507036611338	925.9409179771736
2396.18370384031	2492.9424738065272
2413.2623970922614	20757.574156786028
2420.494892742981	7510.044523310886
2429.217767614584	12223.290198372568
2440.922117560833	7520.181562248422
2470.455283428928	20771.498839780466
2485.325882168036	2407.5698835030944
2494.3146439808415	2744.458771960349
2515.3515212944008	22767.910574171787
2528.3179747422905	2469.844154348508
2541.9989021228776	3642.4527134164414
2549.649057263582	3202.6413332494003
2564.223620545125	9573.942253254674
2583.9499082343323	6072.885379785977
2588.759623371286	13159.58472182857
2596.7857534768873	5810.632755794883
2601.45425776507	4939.61380420617
2608.6565549417537	2016.8672030981595
2621.861002619446	3007.1779822728263
2632.7874694193315	15146.766207508239
2659.50624125616	16553.93805016831
2691.809135289469	5447.3583146655965
2710.690434753899	11022.734725398077
2722.113546903748	12247.633903768938
2805.8482044754624	9669.57409798776
2811.5764401092288	2810.1711503455363
2829.2752713595237	70813.64359092021
2845.8282664113917	7461.732431559627
2874.087211862643	200542.32696922636
2889.560027133102	6738.509368689817
2939.889354740064	4678.09351095664
2964.1135089271866	2309.0653573198947
2973.7655095941245	3076.141944491462
2986.8780277407027	1352.1640883095827
3043.5077333417576	35466.39836005749
3061.422594497053	4551.8611393005585
3084.2235684549605	2279.3436723667346
3095.6557782700093	11439.804256048501
3119.8412609784614	6453.725201643837
3147.825655354809	5226.885263164406
3163.8487113479064	12035.035100222854
3169.255109739421	12365.980226517971
3176.1888025911485	10894.055353293676
3187.535778175969	4369.936475440201
3197.629531928307	3198.1026932002997
3206.6340435657776	2704.8020231356404
3249.6211567699575	4600.1196026789885
3286.092651267897	1860.6220783524482
3298.754869737698	7193.748995685499
3311.2686670854696	2106.1050109523167
3322.3350166938867	16217.350306247476
3347.1280993041196	5895.0856322559175
3359.38518246871	6718.945748342043
3365.565669040656	6105.966586369281
3381.0853806232617	14932.60156684511
3387.7226500253732	2481.9480348344077
3411.3550548537733	3746.8699615730543
3441.055103629552	4449.575400915688
3451.7186597635064	2726.5520368119505
3466.1096960262184	10089.717039785213
3472.652930657193	19047.09936820932
3485.935174023461	3652.8270089651105
3507.861846954849	2959.032495418247
3522.9930180984006	9321.122586311696
3531.7304901196685	4544.327867598198
3547.7176848376603	1983.8118479485133
3590.0469772535266	1320.705498108594
3611.4861866183346	5374.357687515002
3620.5133003832484	8250.789459016181
3629.5516819607233	4595.36484783193
3636.4283878726455	5338.210337191764
3647.480919784744	12115.962714583
3713.1420020086853	26633.599222511
3742.104570655827	698039.3112369786
3757.456181915104	9495.192564747798
3763.0714923233118	22952.475909292483
3775.3292467035712	6525.949084950432
3833.84900900236	113585.85542438719
3858.613738114336	12309.911434184178
3921.5323896869027	1301.872553135619
3965.273185988253	8814.816347970209
3971.42004041549	3274.9869140099436
3987.2345559504256	6985.009842098703
3999.8518290457455	3580.6024456223654
4162.493406403896	6571.1657451975725
4243.660400385582	14906883.665305758
4253.151564373804	386309.95107445784
4265.103957318451	1803803.3961352278
4284.144759608184	163327.4320598616
4360.038146748694	11135.657404153038
4479.597588290324	8358.509040246703
4502.7364442970065	2770.0606297913046
4631.372103715041	2137.8307308143594
4661.456446659535	16742.369219931283
4684.134990020784	10173.441240383636
4785.986675791936	47766.241232337255
4803.9701686016415	17208.06825776995
4821.987384847563	4287.363824121231
4835.861699619386	2908.859354673493
5005.076318205687	4216.961964417526
5020.381351417784	915.702543654889
5053.51569434862	255000.0282625458
5076.806668122898	19230.939320991416
5175.364707184555	410936.5513539774
5195.3631394884	9060.642921281253
5303.80240460023	13404.879158487502
5322.62336105616	12728.528168473082
5431.048229328331	9077.284730185947
5444.221290334865	4153.629542590773
5527.388755926785	7466.188724151228
5558.683128656479	8973.682128791948
5633.023299688063	12591.067196042199
5747.963053688981	41857797.927213654
5769.7218856234185	1692185.3968358554
5786.610398792552	386178.5657655184
6060.0663651491195	4369.056390914758
6090.488582969063	244447.22513081576
6112.76837358234	60449.4425587804
6245.165747318064	8348.691007689935
6327.410399554389	2177761.977167007
6350.358263649757	657181.9869483797
6607.356502178342	2364.147598930594
6641.445320972158	20218.23505263726
6756.201734441368	15001.02659243271
6831.0599557612095	8889.817307133804
6889.3743270984505	7672.812236695257
6932.55403447174	2601.176651055006
6948.812486559319	38039.84051936415
7012.653823098167	2571.950537566823
7111.431562089929	19553.756513877175
7139.436365518861	35291.56086210375
7252.0059104679085	10863.658200581034
7270.810440048104	31695.091574541606
7408.549800526417	30693.082901972874
7434.414650367738	104586.55683289455
7453.324450992873	2163.785354729327
7758.35439150548	9456.224787560926
7838.1591228316	12276.75719962585
8487.009832200285	220256404.13427076
8719.676921362987	904773.9356897102
8739.874474846356	260577.08572070545
9319.963805044554	147648.9671509211
9558.421490822922	5376.990975180852
9597.942533733165	16444.73734778029
10064.694488341966	983.0541712928026
16968.547065237697	132780.01453754108
